Extended_Flutes_09-Nov-20_5:45:02 PM	Left_PQC4_GCD05_IV	
Temperature(C)= 24.3	Humidity(%)= 7.5	Bias(V)= -5.000E+0
Current_Limit(A) = 10.000E-6	Settling_time(s) = 0.5	
		
Voltage (V)	Current (A)
-15.000E+0	-5.705E-12
-14.900E+0	220.190E-15
-14.800E+0	1.297E-12
-14.700E+0	1.461E-12
-14.600E+0	1.416E-12
-14.500E+0	1.442E-12
-14.400E+0	1.416E-12
-14.300E+0	1.424E-12
-14.200E+0	1.428E-12
-14.100E+0	1.421E-12
-14.000E+0	1.403E-12
-13.900E+0	1.361E-12
-13.800E+0	1.413E-12
-13.700E+0	1.435E-12
-13.600E+0	1.443E-12
-13.500E+0	1.424E-12
-13.400E+0	1.389E-12
-13.300E+0	48.144E-12
-13.200E+0	7.726E-12
-13.100E+0	2.584E-12
-13.000E+0	1.796E-12
-12.900E+0	1.454E-12
-12.800E+0	1.461E-12
-12.700E+0	1.480E-12
-12.600E+0	1.582E-12
-12.500E+0	1.489E-12
-12.400E+0	1.513E-12
-12.300E+0	1.521E-12
-12.200E+0	1.580E-12
-12.100E+0	1.579E-12
-12.000E+0	1.588E-12
-11.900E+0	1.606E-12
-11.800E+0	1.623E-12
-11.700E+0	1.643E-12
-11.600E+0	1.667E-12
-11.500E+0	1.674E-12
-11.400E+0	1.693E-12
-11.300E+0	1.717E-12
-11.200E+0	1.704E-12
-11.100E+0	1.721E-12
-11.000E+0	1.722E-12
-10.900E+0	1.758E-12
-10.800E+0	1.784E-12
-10.700E+0	1.784E-12
-10.600E+0	1.832E-12
-10.500E+0	1.855E-12
-10.400E+0	1.879E-12
-10.300E+0	1.946E-12
-10.200E+0	1.911E-12
-10.100E+0	1.934E-12
-10.000E+0	1.967E-12
-9.900E+0	1.988E-12
-9.800E+0	2.020E-12
-9.700E+0	2.042E-12
-9.600E+0	2.088E-12
-9.500E+0	2.120E-12
-9.400E+0	2.180E-12
-9.300E+0	2.197E-12
-9.200E+0	2.257E-12
-9.100E+0	2.282E-12
-9.000E+0	2.334E-12
-8.900E+0	2.409E-12
-8.800E+0	2.463E-12
-8.700E+0	2.520E-12
-8.600E+0	2.598E-12
-8.500E+0	2.682E-12
-8.400E+0	2.812E-12
-8.300E+0	2.931E-12
-8.200E+0	3.106E-12
-8.100E+0	3.306E-12
-8.000E+0	3.506E-12
-7.900E+0	3.818E-12
-7.800E+0	4.277E-12
-7.700E+0	4.956E-12
-7.600E+0	6.090E-12
-7.500E+0	7.813E-12
-7.400E+0	9.253E-12
-7.300E+0	9.938E-12
-7.200E+0	10.140E-12
-7.100E+0	10.195E-12
-7.000E+0	10.217E-12
-6.900E+0	10.212E-12
-6.800E+0	10.229E-12
-6.700E+0	10.223E-12
-6.600E+0	10.246E-12
-6.500E+0	10.166E-12
-6.400E+0	10.198E-12
-6.300E+0	10.207E-12
-6.200E+0	10.208E-12
-6.100E+0	10.294E-12
-6.000E+0	10.084E-12
-5.900E+0	10.130E-12
-5.800E+0	10.143E-12
-5.700E+0	10.159E-12
-5.600E+0	10.185E-12
-5.500E+0	10.157E-12
-5.400E+0	10.183E-12
-5.300E+0	10.149E-12
-5.200E+0	10.160E-12
-5.100E+0	10.134E-12
-5.000E+0	10.143E-12
-4.900E+0	10.130E-12
-4.800E+0	10.099E-12
-4.700E+0	10.087E-12
-4.600E+0	10.098E-12
-4.500E+0	10.047E-12
-4.400E+0	10.040E-12
-4.300E+0	9.998E-12
-4.200E+0	9.963E-12
-4.100E+0	9.979E-12
-4.000E+0	9.958E-12
-3.900E+0	9.954E-12
-3.800E+0	9.947E-12
-3.700E+0	9.936E-12
-3.600E+0	9.961E-12
-3.500E+0	9.909E-12
-3.400E+0	9.876E-12
-3.300E+0	9.871E-12
-3.200E+0	9.836E-12
-3.100E+0	9.799E-12
-3.000E+0	9.775E-12
-2.900E+0	9.715E-12
-2.800E+0	9.679E-12
-2.700E+0	9.625E-12
-2.600E+0	9.585E-12
-2.500E+0	9.483E-12
-2.400E+0	9.337E-12
-2.300E+0	9.106E-12
-2.200E+0	8.767E-12
-2.100E+0	7.856E-12
-2.000E+0	5.312E-12
-1.900E+0	2.625E-12
-1.800E+0	1.269E-12
-1.700E+0	723.740E-15
-1.600E+0	375.470E-15
-1.500E+0	123.840E-15
-1.400E+0	27.640E-15
-1.300E+0	-92.770E-15
-1.200E+0	-131.010E-15
-1.100E+0	-151.840E-15
-1.000E+0	-169.350E-15
-900.000E-3	-154.600E-15
-800.000E-3	-156.980E-15
-700.000E-3	-188.590E-15
-600.000E-3	-190.440E-15
-500.000E-3	-215.450E-15
-400.000E-3	-137.850E-15
-300.000E-3	-176.940E-15
-200.000E-3	-188.790E-15
-100.000E-3	-205.500E-15
0.000E+0	-161.320E-15
100.000E-3	-225.540E-15
200.000E-3	-222.670E-15
300.000E-3	-238.540E-15
400.000E-3	-237.270E-15
500.000E-3	-234.710E-15
600.000E-3	-234.030E-15
700.000E-3	-242.760E-15
800.000E-3	-231.850E-15
900.000E-3	-241.400E-15
1.000E+0	-239.900E-15
1.100E+0	-229.410E-15
1.200E+0	-245.770E-15
1.300E+0	-249.610E-15
1.400E+0	-269.200E-15
1.500E+0	-200.060E-15
1.600E+0	-240.720E-15
1.700E+0	-231.490E-15
1.800E+0	-235.310E-15
1.900E+0	-275.850E-15
2.000E+0	-275.070E-15
2.100E+0	-246.410E-15
2.200E+0	-266.250E-15
2.300E+0	-273.690E-15
2.400E+0	-279.930E-15
2.500E+0	-274.500E-15
2.600E+0	-253.590E-15
2.700E+0	-267.010E-15
2.800E+0	-262.270E-15
2.900E+0	-242.380E-15
3.000E+0	-243.390E-15
3.100E+0	-271.110E-15
3.200E+0	-270.040E-15
3.300E+0	-277.520E-15
3.400E+0	-230.210E-15
3.500E+0	-288.560E-15
3.600E+0	-298.060E-15
3.700E+0	-293.290E-15
3.800E+0	-284.560E-15
3.900E+0	-301.910E-15
4.000E+0	-300.320E-15
4.100E+0	-271.310E-15
4.200E+0	-276.260E-15
4.300E+0	-298.490E-15
4.400E+0	-293.380E-15
4.500E+0	-302.760E-15
4.600E+0	-280.740E-15
4.700E+0	-299.370E-15
4.800E+0	-287.320E-15
4.900E+0	-301.410E-15
5.000E+0	-287.890E-15
